# FILE      =  I3-24-08-20T120025.ast
# NOTEA     = PI3-Cone West
# NOTEB     = Spectral Integration AIRSPY-mini Test
# OBSERVER  = Science Aficionado
# DEVICE    = airspy,bias=1
# DATADIR   = ../data/
# SITE      = PI3-Cone West
# CITY      = Green Bank
# REGION    = West Virginia
# COUNTRY   = US
# TELTYPE   = Bubble Wrap  Horn
# FRAME     = TOPO
# GAIN1     = 20.0
# GAIN2     = 0.0
# GAIN3     = 0.0
# GAIN4     = 0.0
# Count     = 118336
# REFFREQ   = 1420405751.7680001
# OBSFREQ   = 1421500000.0
# OBSBW     = 6000000.0
# Duration  = 27414.070172000003
# DeltaX    = 5859.375
# TSYS      = 200.0
# TRX       = 100.0
# TRMS      = 2.0
# TINT      = 1.0
# KPERC     = 100.0
# GAINFACT  = 1.0
# BUNIT     = Counts
# NCHAN     = 2048
# NSPEC     = 1
# NTIME     = 0
# NSAMPLES  = 0
# EPEAK     = 4.10875183718
# ERMS      = 0.995973393526
# EMJD      = 58568.808999981004 
# REFCHAN   = 1024.0
# REFSAMPL  = 256.0
# NAVE      = 344
# NMEDIAN   = 1024
# Fft_rate  = 5000
# UTC       = 2024-08-20 12:00:25.421281
# SECONDS   =       0.0000000000 
# LST       = 04:38:19.640
# AZ        = 180.0
# EL        = 80.0
# TELLON    = -79:50:22.920
# TELLAT    = +38:25:59.160
# TELALT    = 0.0
# RA        = 04:35:15.400
# DEC       = +28:19:52.600
# GALLON    = 171:21:10.60
# GALLAT    = -12:50:13.70
# ALT_SUN   = +14:56:28.3
# AZ_SUN    = +86:06:36.0
# ETAA      = 0.8
# ETAB      = 0.99
# POLANGLE  = 0.0
# TELSIZEAM = 1.0
# TELSIZEBM = 1.0
# AST_VERS  = 5.0.1
# N  Frequency  Intensity 
#       (Hz)    (Counts) 
0000 1418500000 4.8064
0001 1418502929 6.4933
0002 1418505859 6.6774
0003 1418508789 6.8472
0004 1418511718 7.0153
0005 1418514648 7.2139
0006 1418517578 7.4196
0007 1418520507 7.6066
0008 1418523437 7.8525
0009 1418526367 8.0647
0010 1418529296 8.3008
0011 1418532226 8.5751
0012 1418535156 8.8211
0013 1418538085 9.1092
0014 1418541015 9.4222
0015 1418543945 9.7281
0016 1418546875 10.0627
0017 1418549804 10.4177
0018 1418552734 10.7857
0019 1418555664 11.1793
0020 1418558593 11.5902
0021 1418561523 12.0173
0022 1418564453 12.4701
0023 1418567382 12.9450
0024 1418570312 13.4401
0025 1418573242 13.9550
0026 1418576171 14.5095
0027 1418579101 15.0869
0028 1418582031 15.6864
0029 1418584960 16.3658
0030 1418587890 17.0964
0031 1418590820 17.7177
0032 1418593750 18.3609
0033 1418596679 19.0549
0034 1418599609 19.7797
0035 1418602539 20.5593
0036 1418605468 21.3725
0037 1418608398 22.2272
0038 1418611328 23.0960
0039 1418614257 24.0193
0040 1418617187 24.9703
0041 1418620117 25.9503
0042 1418623046 26.9570
0043 1418625976 28.0106
0044 1418628906 29.1025
0045 1418631835 30.2196
0046 1418634765 31.3835
0047 1418637695 32.5785
0048 1418640625 33.8173
0049 1418643554 35.0843
0050 1418646484 36.3871
0051 1418649414 37.7519
0052 1418652343 39.1520
0053 1418655273 40.5829
0054 1418658203 42.0411
0055 1418661132 43.5651
0056 1418664062 45.1225
0057 1418666992 46.7050
0058 1418669921 48.3380
0059 1418672851 50.0316
0060 1418675781 51.7404
0061 1418678710 53.5200
0062 1418681640 55.3205
0063 1418684570 57.1726
0064 1418687500 59.0601
0065 1418690429 60.9935
0066 1418693359 62.9761
0067 1418696289 64.9675
0068 1418699218 67.0227
0069 1418702148 69.1299
0070 1418705078 71.2580
0071 1418708007 73.4526
0072 1418710937 75.6779
0073 1418713867 77.9281
0074 1418716796 80.1998
0075 1418719726 82.5642
0076 1418722656 84.9255
0077 1418725585 87.3375
0078 1418728515 89.7929
0079 1418731445 92.2610
0080 1418734375 94.7953
0081 1418737304 97.3223
0082 1418740234 99.9043
0083 1418743164 102.5049
0084 1418746093 105.1338
0085 1418749023 107.8057
0086 1418751953 110.4942
0087 1418754882 113.2392
0088 1418757812 116.0272
0089 1418760742 118.7690
0090 1418763671 121.5792
0091 1418766601 124.4617
0092 1418769531 127.3736
0093 1418772460 130.2791
0094 1418775390 133.0804
0095 1418778320 135.8830
0096 1418781250 138.8888
0097 1418784179 141.7273
0098 1418787109 144.7083
0099 1418790039 147.7046
0100 1418792968 150.6644
0101 1418795898 153.5607
0102 1418798828 156.5836
0103 1418801757 159.6127
0104 1418804687 162.6154
0105 1418807617 165.5591
0106 1418810546 168.5527
0107 1418813476 171.4850
0108 1418816406 174.5554
0109 1418819335 177.5065
0110 1418822265 180.5084
0111 1418825195 183.4884
0112 1418828125 186.3945
0113 1418831054 189.3994
0114 1418833984 192.3536
0115 1418836914 195.3288
0116 1418839843 198.2381
0117 1418842773 201.0779
0118 1418845703 204.0019
0119 1418848632 206.8024
0120 1418851562 209.7102
0121 1418854492 212.5663
0122 1418857421 215.2519
0123 1418860351 218.1273
0124 1418863281 220.8138
0125 1418866210 223.4962
0126 1418869140 226.2040
0127 1418872070 228.9715
0128 1418875000 231.6885
0129 1418877929 234.2277
0130 1418880859 236.8416
0131 1418883789 239.4439
0132 1418886718 241.8758
0133 1418889648 244.4494
0134 1418892578 246.9481
0135 1418895507 249.3305
0136 1418898437 251.7243
0137 1418901367 254.0776
0138 1418904296 256.3694
0139 1418907226 258.5976
0140 1418910156 260.8951
0141 1418913085 263.1315
0142 1418916015 265.2974
0143 1418918945 267.4355
0144 1418921875 269.6348
0145 1418924804 271.6255
0146 1418927734 273.6193
0147 1418930664 275.6567
0148 1418933593 277.6140
0149 1418936523 279.4725
0150 1418939453 281.3145
0151 1418942382 283.2117
0152 1418945312 284.9396
0153 1418948242 286.8017
0154 1418951171 288.4346
0155 1418954101 290.1616
0156 1418957031 291.8586
0157 1418959960 293.4080
0158 1418962890 295.0412
0159 1418965820 296.4158
0160 1418968750 297.8305
0161 1418971679 299.3220
0162 1418974609 300.7361
0163 1418977539 302.2270
0164 1418980468 303.5466
0165 1418983398 304.9047
0166 1418986328 306.0987
0167 1418989257 307.2463
0168 1418992187 308.5883
0169 1418995117 309.6956
0170 1418998046 310.8323
0171 1419000976 312.0179
0172 1419003906 313.0647
0173 1419006835 314.1103
0174 1419009765 315.0853
0175 1419012695 315.9905
0176 1419015625 316.8989
0177 1419018554 317.8102
0178 1419021484 318.6179
0179 1419024414 319.5646
0180 1419027343 320.3572
0181 1419030273 321.2000
0182 1419033203 321.9741
0183 1419036132 322.5792
0184 1419039062 323.4189
0185 1419041992 323.9953
0186 1419044921 324.6908
0187 1419047851 325.2668
0188 1419050781 325.8848
0189 1419053710 326.4858
0190 1419056640 327.1263
0191 1419059570 327.5976
0192 1419062500 328.1450
0193 1419065429 328.4785
0194 1419068359 328.9323
0195 1419071289 329.3318
0196 1419074218 329.7159
0197 1419077148 330.2703
0198 1419080078 330.5678
0199 1419083007 330.9137
0200 1419085937 331.1713
0201 1419088867 331.5640
0202 1419091796 331.7819
0203 1419094726 332.1991
0204 1419097656 332.4778
0205 1419100585 332.6918
0206 1419103515 332.8886
0207 1419106445 333.2193
0208 1419109375 333.4115
0209 1419112304 333.4472
0210 1419115234 333.6028
0211 1419118164 333.6745
0212 1419121093 333.8771
0213 1419124023 334.0522
0214 1419126953 334.2167
0215 1419129882 334.3225
0216 1419132812 334.4013
0217 1419135742 334.5016
0218 1419138671 334.4698
0219 1419141601 334.5168
0220 1419144531 334.5278
0221 1419147460 334.7485
0222 1419150390 334.6826
0223 1419153320 334.7109
0224 1419156250 334.7048
0225 1419159179 334.6905
0226 1419162109 334.8606
0227 1419165039 334.8043
0228 1419167968 334.7012
0229 1419170898 334.6578
0230 1419173828 334.6104
0231 1419176757 334.5602
0232 1419179687 334.4505
0233 1419182617 334.4548
0234 1419185546 334.3361
0235 1419188476 334.4312
0236 1419191406 334.2811
0237 1419194335 334.0912
0238 1419197265 333.9467
0239 1419200195 333.8724
0240 1419203125 333.9847
0241 1419206054 333.7996
0242 1419208984 333.6739
0243 1419211914 333.4810
0244 1419214843 333.4079
0245 1419217773 333.3651
0246 1419220703 333.2114
0247 1419223632 333.1109
0248 1419226562 332.9889
0249 1419229492 332.8231
0250 1419232421 332.5935
0251 1419235351 332.6188
0252 1419238281 332.4768
0253 1419241210 332.3304
0254 1419244140 332.1951
0255 1419247070 331.8836
0256 1419250000 331.9691
0257 1419252929 331.5360
0258 1419255859 331.5409
0259 1419258789 331.3604
0260 1419261718 331.2959
0261 1419264648 330.9943
0262 1419267578 330.9380
0263 1419270507 330.6941
0264 1419273437 330.4738
0265 1419276367 330.3596
0266 1419279296 330.1280
0267 1419282226 330.0246
0268 1419285156 329.8580
0269 1419288085 329.6619
0270 1419291015 329.4624
0271 1419293945 329.4507
0272 1419296875 329.1823
0273 1419299804 329.0200
0274 1419302734 328.7307
0275 1419305664 328.7254
0276 1419308593 328.5370
0277 1419311523 328.3922
0278 1419314453 328.1901
0279 1419317382 327.9940
0280 1419320312 327.9844
0281 1419323242 327.6921
0282 1419326171 327.5130
0283 1419329101 327.2646
0284 1419332031 327.0725
0285 1419334960 327.0065
0286 1419337890 326.6888
0287 1419340820 326.5969
0288 1419343750 326.3652
0289 1419346679 326.2753
0290 1419349609 326.0332
0291 1419352539 325.9411
0292 1419355468 325.8405
0293 1419358398 325.6180
0294 1419361328 325.3209
0295 1419364257 325.2115
0296 1419367187 325.1116
0297 1419370117 324.8835
0298 1419373046 324.7372
0299 1419375976 324.4994
0300 1419378906 324.5183
0301 1419381835 324.2097
0302 1419384765 324.0333
0303 1419387695 323.9138
0304 1419390625 323.7893
0305 1419393554 323.6220
0306 1419396484 323.4258
0307 1419399414 323.2172
0308 1419402343 323.0398
0309 1419405273 322.9307
0310 1419408203 322.8621
0311 1419411132 322.6667
0312 1419414062 322.4658
0313 1419416992 322.3477
0314 1419419921 322.1127
0315 1419422851 322.0689
0316 1419425781 322.0143
0317 1419428710 321.6696
0318 1419431640 321.4704
0319 1419434570 321.4676
0320 1419437500 321.2759
0321 1419440429 321.1030
0322 1419443359 321.0338
0323 1419446289 320.8138
0324 1419449218 320.7181
0325 1419452148 320.7020
0326 1419455078 320.4756
0327 1419458007 320.2813
0328 1419460937 320.2380
0329 1419463867 320.0519
0330 1419466796 319.8375
0331 1419469726 319.8135
0332 1419472656 319.5676
0333 1419475585 319.5577
0334 1419478515 319.3635
0335 1419481445 319.2456
0336 1419484375 319.1106
0337 1419487304 319.0169
0338 1419490234 318.8938
0339 1419493164 318.8048
0340 1419496093 318.7255
0341 1419499023 318.5571
0342 1419501953 318.5567
0343 1419504882 318.3606
0344 1419507812 318.1988
0345 1419510742 318.1729
0346 1419513671 317.9525
0347 1419516601 317.9050
0348 1419519531 317.7820
0349 1419522460 317.7187
0350 1419525390 317.5777
0351 1419528320 317.4280
0352 1419531250 317.3772
0353 1419534179 317.2297
0354 1419537109 317.1197
0355 1419540039 316.9966
0356 1419542968 316.9067
0357 1419545898 316.9761
0358 1419548828 316.8125
0359 1419551757 316.8132
0360 1419554687 316.6986
0361 1419557617 316.6023
0362 1419560546 316.4923
0363 1419563476 316.4345
0364 1419566406 316.4807
0365 1419569335 316.3532
0366 1419572265 316.1464
0367 1419575195 316.0821
0368 1419578125 315.9958
0369 1419581054 315.8694
0370 1419583984 315.8705
0371 1419586914 315.7980
0372 1419589843 315.9369
0373 1419592773 315.7475
0374 1419595703 315.6334
0375 1419598632 315.5809
0376 1419601562 315.6411
0377 1419604492 315.5845
0378 1419607421 315.3027
0379 1419610351 315.4005
0380 1419613281 315.2201
0381 1419616210 315.2001
0382 1419619140 315.2266
0383 1419622070 315.0894
0384 1419625000 314.9530
0385 1419627929 315.0607
0386 1419630859 315.0550
0387 1419633789 315.0050
0388 1419636718 315.0090
0389 1419639648 314.9600
0390 1419642578 314.9288
0391 1419645507 314.8229
0392 1419648437 314.8260
0393 1419651367 314.7461
0394 1419654296 314.7793
0395 1419657226 314.7446
0396 1419660156 314.5687
0397 1419663085 314.6600
0398 1419666015 314.5693
0399 1419668945 314.6302
0400 1419671875 314.5890
0401 1419674804 314.3636
0402 1419677734 314.4533
0403 1419680664 314.3847
0404 1419683593 314.3846
0405 1419686523 314.3928
0406 1419689453 314.3494
0407 1419692382 314.4031
0408 1419695312 314.2677
0409 1419698242 314.3398
0410 1419701171 314.3430
0411 1419704101 314.3100
0412 1419707031 314.4207
0413 1419709960 314.3111
0414 1419712890 314.2144
0415 1419715820 314.2617
0416 1419718750 314.2186
0417 1419721679 314.2639
0418 1419724609 314.2430
0419 1419727539 314.1384
0420 1419730468 314.2967
0421 1419733398 314.1868
0422 1419736328 314.1698
0423 1419739257 314.2631
0424 1419742187 314.2568
0425 1419745117 314.2274
0426 1419748046 314.1186
0427 1419750976 314.1570
0428 1419753906 314.2350
0429 1419756835 314.2149
0430 1419759765 314.2781
0431 1419762695 314.2993
0432 1419765625 314.2278
0433 1419768554 314.2082
0434 1419771484 314.2378
0435 1419774414 314.1077
0436 1419777343 314.1272
0437 1419780273 314.2817
0438 1419783203 314.1736
0439 1419786132 314.1434
0440 1419789062 314.1706
0441 1419791992 314.2209
0442 1419794921 314.1681
0443 1419797851 314.2990
0444 1419800781 314.3826
0445 1419803710 314.2129
0446 1419806640 314.2804
0447 1419809570 314.2327
0448 1419812500 314.3241
0449 1419815429 314.3090
0450 1419818359 314.3469
0451 1419821289 314.4532
0452 1419824218 314.4592
0453 1419827148 314.4260
0454 1419830078 314.4994
0455 1419833007 314.5103
0456 1419835937 314.4863
0457 1419838867 314.4110
0458 1419841796 314.5184
0459 1419844726 314.5315
0460 1419847656 314.5315
0461 1419850585 314.5652
0462 1419853515 314.6236
0463 1419856445 314.5907
0464 1419859375 314.7405
0465 1419862304 314.6383
0466 1419865234 314.6649
0467 1419868164 314.6609
0468 1419871093 314.7203
0469 1419874023 314.7290
0470 1419876953 314.7750
0471 1419879882 314.7748
0472 1419882812 314.7519
0473 1419885742 314.8258
0474 1419888671 314.8780
0475 1419891601 314.8828
0476 1419894531 314.8263
0477 1419897460 314.8274
0478 1419900390 314.9050
0479 1419903320 314.9629
0480 1419906250 315.0331
0481 1419909179 314.9920
0482 1419912109 315.1101
0483 1419915039 315.1219
0484 1419917968 314.9147
0485 1419920898 314.9861
0486 1419923828 315.1242
0487 1419926757 315.2046
0488 1419929687 315.2347
0489 1419932617 315.1322
0490 1419935546 315.1428
0491 1419938476 315.2021
0492 1419941406 315.2454
0493 1419944335 315.2719
0494 1419947265 315.3628
0495 1419950195 315.3177
0496 1419953125 315.3574
0497 1419956054 315.3912
0498 1419958984 315.3970
0499 1419961914 315.4382
0500 1419964843 315.4333
0501 1419967773 315.4280
0502 1419970703 315.3779
0503 1419973632 315.4507
0504 1419976562 315.4889
0505 1419979492 315.5398
0506 1419982421 315.4506
0507 1419985351 315.5348
0508 1419988281 315.6547
0509 1419991210 315.6192
0510 1419994140 315.5506
0511 1419997070 315.6498
0512 1420000000 315.7056
0513 1420002929 315.6858
0514 1420005859 315.6803
0515 1420008789 315.7652
0516 1420011718 315.7289
0517 1420014648 315.7587
0518 1420017578 315.8291
0519 1420020507 315.7432
0520 1420023437 315.8104
0521 1420026367 316.0762
0522 1420029296 315.8989
0523 1420032226 315.9988
0524 1420035156 316.0488
0525 1420038085 315.9974
0526 1420041015 316.1168
0527 1420043945 316.0931
0528 1420046875 315.8639
0529 1420049804 316.0988
0530 1420052734 316.1247
0531 1420055664 316.0998
0532 1420058593 316.0929
0533 1420061523 316.1510
0534 1420064453 316.2197
0535 1420067382 316.2548
0536 1420070312 316.3910
0537 1420073242 316.2689
0538 1420076171 316.3367
0539 1420079101 316.3449
0540 1420082031 316.3281
0541 1420084960 316.2602
0542 1420087890 316.3661
0543 1420090820 316.4186
0544 1420093750 316.3961
0545 1420096679 316.4980
0546 1420099609 316.4460
0547 1420102539 316.4155
0548 1420105468 316.4150
0549 1420108398 316.5280
0550 1420111328 316.5329
0551 1420114257 316.6075
0552 1420117187 316.5916
0553 1420120117 316.6394
0554 1420123046 316.5991
0555 1420125976 316.6203
0556 1420128906 316.6293
0557 1420131835 316.6553
0558 1420134765 316.6161
0559 1420137695 316.6417
0560 1420140625 316.7071
0561 1420143554 316.6873
0562 1420146484 316.7223
0563 1420149414 316.7661
0564 1420152343 316.7337
0565 1420155273 316.8089
0566 1420158203 316.7272
0567 1420161132 316.8052
0568 1420164062 316.9872
0569 1420166992 316.8576
0570 1420169921 316.8254
0571 1420172851 316.9158
0572 1420175781 316.8166
0573 1420178710 317.0134
0574 1420181640 316.9651
0575 1420184570 317.0402
0576 1420187500 316.8976
0577 1420190429 317.0679
0578 1420193359 316.9825
0579 1420196289 316.8939
0580 1420199218 317.0350
0581 1420202148 317.1053
0582 1420205078 317.0889
0583 1420208007 317.1108
0584 1420210937 316.9383
0585 1420213867 317.1745
0586 1420216796 317.1363
0587 1420219726 317.1433
0588 1420222656 317.1044
0589 1420225585 317.1540
0590 1420228515 317.1178
0591 1420231445 317.1523
0592 1420234375 317.2296
0593 1420237304 317.2120
0594 1420240234 317.2819
0595 1420243164 317.3292
0596 1420246093 317.3721
0597 1420249023 317.3718
0598 1420251953 317.4210
0599 1420254882 317.4474
0600 1420257812 317.5695
0601 1420260742 317.5973
0602 1420263671 317.6227
0603 1420266601 317.6263
0604 1420269531 317.6321
0605 1420272460 317.6376
0606 1420275390 317.8149
0607 1420278320 317.7568
0608 1420281250 317.8181
0609 1420284179 317.9333
0610 1420287109 317.9654
0611 1420290039 318.1795
0612 1420292968 318.1405
0613 1420295898 318.2075
0614 1420298828 318.3845
0615 1420301757 318.4122
0616 1420304687 318.5337
0617 1420307617 318.6838
0618 1420310546 318.9593
0619 1420313476 319.0760
0620 1420316406 319.4444
0621 1420319335 319.5351
0622 1420322265 319.9145
0623 1420325195 320.0611
0624 1420328125 320.3797
0625 1420331054 320.8098
0626 1420333984 321.1490
0627 1420336914 321.4454
0628 1420339843 321.8279
0629 1420342773 322.2641
0630 1420345703 322.7208
0631 1420348632 322.9192
0632 1420351562 323.5151
0633 1420354492 323.7722
0634 1420357421 324.2278
0635 1420360351 324.6842
0636 1420363281 325.0597
0637 1420366210 325.3541
0638 1420369140 325.6879
0639 1420372070 326.2498
0640 1420375000 326.6278
0641 1420377929 326.9030
0642 1420380859 327.3212
0643 1420383789 327.4345
0644 1420386718 327.4317
0645 1420389648 327.5718
0646 1420392578 327.6005
0647 1420395507 327.5637
0648 1420398437 327.4477
0649 1420401367 327.2360
0650 1420404296 326.7900
0651 1420407226 326.4325
0652 1420410156 325.8677
0653 1420413085 325.3287
0654 1420416015 324.8119
0655 1420418945 324.4958
0656 1420421875 324.1202
0657 1420424804 323.6838
0658 1420427734 323.3672
0659 1420430664 322.8688
0660 1420433593 322.4750
0661 1420436523 322.1466
0662 1420439453 321.8469
0663 1420442382 321.6205
0664 1420445312 321.3382
0665 1420448242 320.9115
0666 1420451171 320.7176
0667 1420454101 320.4184
0668 1420457031 320.2621
0669 1420459960 319.9960
0670 1420462890 319.8083
0671 1420465820 319.6177
0672 1420468750 319.4218
0673 1420471679 319.2859
0674 1420474609 319.2232
0675 1420477539 319.0851
0676 1420480468 318.9709
0677 1420483398 318.7560
0678 1420486328 318.6548
0679 1420489257 318.3611
0680 1420492187 318.2992
0681 1420495117 318.1436
0682 1420498046 318.1196
0683 1420500976 317.8296
0684 1420503906 317.7004
0685 1420506835 317.5880
0686 1420509765 317.2806
0687 1420512695 317.2624
0688 1420515625 317.1139
0689 1420518554 316.9998
0690 1420521484 316.7527
0691 1420524414 316.5867
0692 1420527343 316.4627
0693 1420530273 316.3455
0694 1420533203 316.1703
0695 1420536132 316.0521
0696 1420539062 315.8575
0697 1420541992 315.7205
0698 1420544921 315.6248
0699 1420547851 315.5936
0700 1420550781 315.4770
0701 1420553710 315.2970
0702 1420556640 315.2711
0703 1420559570 315.1601
0704 1420562500 314.8229
0705 1420565429 314.8246
0706 1420568359 314.7522
0707 1420571289 314.5782
0708 1420574218 314.5846
0709 1420577148 314.4814
0710 1420580078 314.4625
0711 1420583007 314.2413
0712 1420585937 314.1885
0713 1420588867 314.0029
0714 1420591796 313.9379
0715 1420594726 313.8248
0716 1420597656 313.6784
0717 1420600585 313.5130
0718 1420603515 313.5436
0719 1420606445 313.5934
0720 1420609375 313.2732
0721 1420612304 313.3106
0722 1420615234 313.2151
0723 1420618164 313.1282
0724 1420621093 312.9939
0725 1420624023 312.8071
0726 1420626953 312.8201
0727 1420629882 312.7701
0728 1420632812 312.6000
0729 1420635742 312.6548
0730 1420638671 312.5020
0731 1420641601 312.4143
0732 1420644531 312.4994
0733 1420647460 312.2508
0734 1420650390 312.1086
0735 1420653320 312.0322
0736 1420656250 311.9569
0737 1420659179 312.0638
0738 1420662109 311.8838
0739 1420665039 311.6970
0740 1420667968 311.6304
0741 1420670898 311.4417
0742 1420673828 311.3380
0743 1420676757 311.2359
0744 1420679687 311.1733
0745 1420682617 311.1106
0746 1420685546 311.0360
0747 1420688476 310.9000
0748 1420691406 310.7502
0749 1420694335 310.6261
0750 1420697265 310.5814
0751 1420700195 310.4568
0752 1420703125 310.3970
0753 1420706054 310.3016
0754 1420708984 310.1959
0755 1420711914 309.9324
0756 1420714843 309.9278
0757 1420717773 309.7719
0758 1420720703 309.8673
0759 1420723632 309.5930
0760 1420726562 309.6050
0761 1420729492 309.5154
0762 1420732421 309.3768
0763 1420735351 309.2537
0764 1420738281 309.2539
0765 1420741210 309.1126
0766 1420744140 308.9794
0767 1420747070 308.8667
0768 1420750000 308.8035
0769 1420752929 308.7006
0770 1420755859 308.6492
0771 1420758789 308.5579
0772 1420761718 308.4604
0773 1420764648 308.2948
0774 1420767578 308.2454
0775 1420770507 308.1861
0776 1420773437 308.0223
0777 1420776367 308.0311
0778 1420779296 308.0165
0779 1420782226 307.8676
0780 1420785156 307.7395
0781 1420788085 307.6383
0782 1420791015 307.5847
0783 1420793945 307.5009
0784 1420796875 307.3769
0785 1420799804 307.3317
0786 1420802734 307.3076
0787 1420805664 307.1878
0788 1420808593 307.1162
0789 1420811523 307.0455
0790 1420814453 306.9133
0791 1420817382 306.9527
0792 1420820312 306.8587
0793 1420823242 306.7161
0794 1420826171 306.6220
0795 1420829101 306.6549
0796 1420832031 306.3683
0797 1420834960 306.4052
0798 1420837890 306.2604
0799 1420840820 306.1949
0800 1420843750 306.1352
0801 1420846679 306.0768
0802 1420849609 306.0790
0803 1420852539 305.8909
0804 1420855468 305.8432
0805 1420858398 305.7762
0806 1420861328 305.6612
0807 1420864257 305.5698
0808 1420867187 305.4188
0809 1420870117 305.4051
0810 1420873046 305.2132
0811 1420875976 305.1153
0812 1420878906 305.0278
0813 1420881835 305.0354
0814 1420884765 304.8325
0815 1420887695 304.8097
0816 1420890625 304.8293
0817 1420893554 304.6677
0818 1420896484 304.5113
0819 1420899414 304.4757
0820 1420902343 304.5310
0821 1420905273 304.5881
0822 1420908203 304.2784
0823 1420911132 304.2492
0824 1420914062 304.1194
0825 1420916992 304.0868
0826 1420919921 303.7951
0827 1420922851 303.7956
0828 1420925781 303.7763
0829 1420928710 303.7582
0830 1420931640 303.6731
0831 1420934570 303.5646
0832 1420937500 303.5050
0833 1420940429 303.4731
0834 1420943359 303.3103
0835 1420946289 303.1571
0836 1420949218 303.1601
0837 1420952148 303.0646
0838 1420955078 303.0979
0839 1420958007 302.9736
0840 1420960937 302.9154
0841 1420963867 302.7367
0842 1420966796 302.7607
0843 1420969726 302.7203
0844 1420972656 302.6305
0845 1420975585 302.4636
0846 1420978515 302.4673
0847 1420981445 302.4328
0848 1420984375 302.2279
0849 1420987304 302.2023
0850 1420990234 302.1216
0851 1420993164 302.1956
0852 1420996093 302.0745
0853 1420999023 301.9461
0854 1421001953 301.8224
0855 1421004882 301.6798
0856 1421007812 301.5248
0857 1421010742 301.5700
0858 1421013671 301.5792
0859 1421016601 301.4950
0860 1421019531 301.2356
0861 1421022460 301.1950
0862 1421025390 301.2523
0863 1421028320 301.1539
0864 1421031250 300.9985
0865 1421034179 300.8728
0866 1421037109 300.7879
0867 1421040039 300.7346
0868 1421042968 300.7732
0869 1421045898 300.7153
0870 1421048828 300.5994
0871 1421051757 300.4181
0872 1421054687 300.3885
0873 1421057617 300.3547
0874 1421060546 300.2626
0875 1421063476 300.0949
0876 1421066406 300.0963
0877 1421069335 299.9818
0878 1421072265 299.9079
0879 1421075195 299.9752
0880 1421078125 299.7853
0881 1421081054 299.8001
0882 1421083984 299.5483
0883 1421086914 299.7057
0884 1421089843 299.4904
0885 1421092773 299.5229
0886 1421095703 299.4111
0887 1421098632 299.3203
0888 1421101562 299.2631
0889 1421104492 299.1560
0890 1421107421 299.0241
0891 1421110351 298.9882
0892 1421113281 299.0103
0893 1421116210 298.9429
0894 1421119140 298.8303
0895 1421122070 298.6012
0896 1421125000 298.5114
0897 1421127929 298.5829
0898 1421130859 298.5189
0899 1421133789 298.4438
0900 1421136718 298.3569
0901 1421139648 298.2919
0902 1421142578 298.2196
0903 1421145507 298.1381
0904 1421148437 298.0654
0905 1421151367 298.0038
0906 1421154296 297.9088
0907 1421157226 297.9328
0908 1421160156 297.8385
0909 1421163085 297.7461
0910 1421166015 297.6609
0911 1421168945 297.6326
0912 1421171875 297.5127
0913 1421174804 297.4643
0914 1421177734 297.4405
0915 1421180664 297.3891
0916 1421183593 297.2767
0917 1421186523 297.1221
0918 1421189453 297.1224
0919 1421192382 297.1306
0920 1421195312 296.9756
0921 1421198242 296.8973
0922 1421201171 296.7950
0923 1421204101 296.7127
0924 1421207031 296.5235
0925 1421209960 296.6625
0926 1421212890 296.5072
0927 1421215820 296.5921
0928 1421218750 296.4807
0929 1421221679 296.3046
0930 1421224609 296.3406
0931 1421227539 296.2212
0932 1421230468 296.2662
0933 1421233398 296.1175
0934 1421236328 296.1255
0935 1421239257 295.9768
0936 1421242187 295.8857
0937 1421245117 295.8904
0938 1421248046 295.8487
0939 1421250976 295.8057
0940 1421253906 295.6508
0941 1421256835 295.6605
0942 1421259765 295.5840
0943 1421262695 295.5993
0944 1421265625 295.4673
0945 1421268554 295.3294
0946 1421271484 295.3922
0947 1421274414 295.1998
0948 1421277343 295.2180
0949 1421280273 295.1755
0950 1421283203 295.1154
0951 1421286132 294.9926
0952 1421289062 294.9484
0953 1421291992 294.8842
0954 1421294921 294.7550
0955 1421297851 294.7915
0956 1421300781 294.7819
0957 1421303710 294.6666
0958 1421306640 294.5478
0959 1421309570 294.5594
0960 1421312500 294.4047
0961 1421315429 294.4834
0962 1421318359 294.4339
0963 1421321289 294.3296
0964 1421324218 294.3092
0965 1421327148 294.2982
0966 1421330078 294.3356
0967 1421333007 294.2802
0968 1421335937 294.1765
0969 1421338867 293.8993
0970 1421341796 293.8945
0971 1421344726 293.8487
0972 1421347656 293.7989
0973 1421350585 293.6588
0974 1421353515 293.6691
0975 1421356445 293.6318
0976 1421359375 293.5119
0977 1421362304 293.4283
0978 1421365234 293.3876
0979 1421368164 293.3681
0980 1421371093 293.3914
0981 1421374023 293.1527
0982 1421376953 293.1430
0983 1421379882 293.0666
0984 1421382812 293.0933
0985 1421385742 293.0856
0986 1421388671 293.1371
0987 1421391601 292.8446
0988 1421394531 292.7742
0989 1421397460 292.8604
0990 1421400390 292.7933
0991 1421403320 292.6971
0992 1421406250 292.6938
0993 1421409179 292.4987
0994 1421412109 292.5049
0995 1421415039 292.4148
0996 1421417968 292.4415
0997 1421420898 292.4556
0998 1421423828 292.3720
0999 1421426757 292.4206
1000 1421429687 292.3438
1001 1421432617 292.2297
1002 1421435546 292.1369
1003 1421438476 292.0928
1004 1421441406 292.0600
1005 1421444335 292.0123
1006 1421447265 292.0055
1007 1421450195 291.9859
1008 1421453125 292.0848
1009 1421456054 291.8968
1010 1421458984 291.8611
1011 1421461914 291.7431
1012 1421464843 291.6920
1013 1421467773 291.7896
1014 1421470703 291.6510
1015 1421473632 291.6448
1016 1421476562 291.7110
1017 1421479492 291.5630
1018 1421482421 291.6433
1019 1421485351 291.6473
1020 1421488281 291.5613
1021 1421491210 291.5874
1022 1421494140 291.4014
1023 1421497070 291.4094
1024 1421500000 291.4079
1025 1421502929 291.3310
1026 1421505859 291.2820
1027 1421508789 291.2248
1028 1421511718 291.1970
1029 1421514648 291.3153
1030 1421517578 291.1658
1031 1421520507 291.0630
1032 1421523437 291.0756
1033 1421526367 291.0650
1034 1421529296 291.0087
1035 1421532226 290.8951
1036 1421535156 290.8826
1037 1421538085 290.7749
1038 1421541015 290.7886
1039 1421543945 290.7579
1040 1421546875 290.7865
1041 1421549804 290.7861
1042 1421552734 290.6869
1043 1421555664 290.7286
1044 1421558593 290.6750
1045 1421561523 290.6227
1046 1421564453 290.5977
1047 1421567382 290.5183
1048 1421570312 290.5211
1049 1421573242 290.4363
1050 1421576171 290.4196
1051 1421579101 290.5466
1052 1421582031 290.3488
1053 1421584960 290.4429
1054 1421587890 290.3702
1055 1421590820 290.3444
1056 1421593750 290.3744
1057 1421596679 290.2505
1058 1421599609 290.2318
1059 1421602539 290.1774
1060 1421605468 290.1909
1061 1421608398 290.2098
1062 1421611328 290.2377
1063 1421614257 290.2060
1064 1421617187 290.2064
1065 1421620117 290.1357
1066 1421623046 290.1717
1067 1421625976 289.9879
1068 1421628906 289.9647
1069 1421631835 290.0140
1070 1421634765 289.9269
1071 1421637695 289.9968
1072 1421640625 289.9642
1073 1421643554 289.9675
1074 1421646484 289.9954
1075 1421649414 289.9552
1076 1421652343 290.0173
1077 1421655273 289.9394
1078 1421658203 290.0277
1079 1421661132 290.0601
1080 1421664062 290.0273
1081 1421666992 289.9468
1082 1421669921 289.9112
1083 1421672851 289.8385
1084 1421675781 289.7346
1085 1421678710 289.8073
1086 1421681640 289.8651
1087 1421684570 289.7455
1088 1421687500 289.7933
1089 1421690429 289.7757
1090 1421693359 289.8033
1091 1421696289 289.8485
1092 1421699218 289.7044
1093 1421702148 289.6140
1094 1421705078 289.6589
1095 1421708007 289.5027
1096 1421710937 289.5166
1097 1421713867 289.6198
1098 1421716796 289.5226
1099 1421719726 289.5196
1100 1421722656 289.5304
1101 1421725585 289.4316
1102 1421728515 289.4909
1103 1421731445 289.3955
1104 1421734375 289.3987
1105 1421737304 289.3213
1106 1421740234 289.4312
1107 1421743164 289.4887
1108 1421746093 289.3312
1109 1421749023 289.3709
1110 1421751953 289.3008
1111 1421754882 289.3328
1112 1421757812 289.1951
1113 1421760742 289.3586
1114 1421763671 289.1664
1115 1421766601 289.2265
1116 1421769531 289.1919
1117 1421772460 289.2418
1118 1421775390 289.2035
1119 1421778320 289.1782
1120 1421781250 289.1934
1121 1421784179 289.1606
1122 1421787109 289.1173
1123 1421790039 289.1547
1124 1421792968 289.0863
1125 1421795898 289.1014
1126 1421798828 289.0093
1127 1421801757 289.0940
1128 1421804687 288.9718
1129 1421807617 289.0965
1130 1421810546 289.0371
1131 1421813476 289.0730
1132 1421816406 288.9852
1133 1421819335 289.0033
1134 1421822265 288.9995
1135 1421825195 289.0341
1136 1421828125 288.8850
1137 1421831054 289.0724
1138 1421833984 288.9821
1139 1421836914 288.9872
1140 1421839843 288.9462
1141 1421842773 288.8514
1142 1421845703 288.8786
1143 1421848632 288.9551
1144 1421851562 288.9615
1145 1421854492 288.9010
1146 1421857421 288.8417
1147 1421860351 288.8538
1148 1421863281 288.8414
1149 1421866210 288.8682
1150 1421869140 288.8559
1151 1421872070 288.8561
1152 1421875000 288.8022
1153 1421877929 288.6948
1154 1421880859 288.7373
1155 1421883789 288.8560
1156 1421886718 288.7224
1157 1421889648 288.6908
1158 1421892578 288.7610
1159 1421895507 288.7707
1160 1421898437 288.6970
1161 1421901367 288.6537
1162 1421904296 288.7024
1163 1421907226 288.6878
1164 1421910156 288.5815
1165 1421913085 288.7464
1166 1421916015 288.6611
1167 1421918945 288.6595
1168 1421921875 288.5184
1169 1421924804 288.5023
1170 1421927734 288.5530
1171 1421930664 288.5906
1172 1421933593 288.5534
1173 1421936523 288.5387
1174 1421939453 288.4837
1175 1421942382 288.5131
1176 1421945312 288.5489
1177 1421948242 288.5353
1178 1421951171 288.4675
1179 1421954101 288.4738
1180 1421957031 288.4772
1181 1421959960 288.5332
1182 1421962890 288.4807
1183 1421965820 288.5732
1184 1421968750 288.5291
1185 1421971679 288.4151
1186 1421974609 288.5073
1187 1421977539 288.4518
1188 1421980468 288.4835
1189 1421983398 288.5485
1190 1421986328 288.5119
1191 1421989257 288.6185
1192 1421992187 288.6196
1193 1421995117 288.7236
1194 1421998046 288.5430
1195 1422000976 288.5394
1196 1422003906 288.3869
1197 1422006835 288.4261
1198 1422009765 288.4060
1199 1422012695 288.3853
1200 1422015625 288.3558
1201 1422018554 288.4298
1202 1422021484 288.4122
1203 1422024414 288.3687
1204 1422027343 288.4084
1205 1422030273 288.3562
1206 1422033203 288.4197
1207 1422036132 288.3810
1208 1422039062 288.3959
1209 1422041992 288.3301
1210 1422044921 288.3063
1211 1422047851 288.2763
1212 1422050781 288.4167
1213 1422053710 288.4465
1214 1422056640 288.4908
1215 1422059570 288.5010
1216 1422062500 288.4518
1217 1422065429 288.4114
1218 1422068359 288.4717
1219 1422071289 288.4201
1220 1422074218 288.4408
1221 1422077148 288.3420
1222 1422080078 288.4992
1223 1422083007 288.4475
1224 1422085937 288.5469
1225 1422088867 288.4183
1226 1422091796 288.4291
1227 1422094726 288.4558
1228 1422097656 288.3604
1229 1422100585 288.4014
1230 1422103515 288.3401
1231 1422106445 288.3790
1232 1422109375 288.5293
1233 1422112304 288.4789
1234 1422115234 288.3723
1235 1422118164 288.3464
1236 1422121093 288.3790
1237 1422124023 288.3536
1238 1422126953 288.3458
1239 1422129882 288.4332
1240 1422132812 288.4185
1241 1422135742 288.4219
1242 1422138671 288.2982
1243 1422141601 288.3763
1244 1422144531 288.4370
1245 1422147460 288.4352
1246 1422150390 288.4438
1247 1422153320 288.3835
1248 1422156250 288.4532
1249 1422159179 288.4471
1250 1422162109 288.4400
1251 1422165039 288.3498
1252 1422167968 288.3837
1253 1422170898 288.3779
1254 1422173828 288.4149
1255 1422176757 288.3653
1256 1422179687 288.4229
1257 1422182617 288.4517
1258 1422185546 288.3942
1259 1422188476 288.4838
1260 1422191406 288.4547
1261 1422194335 288.4748
1262 1422197265 288.4716
1263 1422200195 288.4795
1264 1422203125 288.4301
1265 1422206054 288.4066
1266 1422208984 288.4518
1267 1422211914 288.4019
1268 1422214843 288.4914
1269 1422217773 288.4601
1270 1422220703 288.4203
1271 1422223632 288.5266
1272 1422226562 288.4363
1273 1422229492 288.5039
1274 1422232421 288.4315
1275 1422235351 288.4517
1276 1422238281 288.3487
1277 1422241210 288.4580
1278 1422244140 288.3449
1279 1422247070 288.4512
1280 1422250000 288.4122
1281 1422252929 288.5400
1282 1422255859 288.5594
1283 1422258789 288.5003
1284 1422261718 288.5278
1285 1422264648 288.5321
1286 1422267578 288.6296
1287 1422270507 288.5413
1288 1422273437 288.5466
1289 1422276367 288.4943
1290 1422279296 288.4775
1291 1422282226 288.4792
1292 1422285156 288.5135
1293 1422288085 288.4985
1294 1422291015 288.5393
1295 1422293945 288.6820
1296 1422296875 288.5548
1297 1422299804 288.5119
1298 1422302734 288.4795
1299 1422305664 288.5186
1300 1422308593 288.7039
1301 1422311523 288.6289
1302 1422314453 288.6502
1303 1422317382 288.6049
1304 1422320312 288.6962
1305 1422323242 288.6660
1306 1422326171 288.6859
1307 1422329101 288.7316
1308 1422332031 288.7267
1309 1422334960 288.6278
1310 1422337890 288.6101
1311 1422340820 288.5859
1312 1422343750 288.5975
1313 1422346679 288.5386
1314 1422349609 288.5650
1315 1422352539 288.6354
1316 1422355468 288.5695
1317 1422358398 288.5249
1318 1422361328 288.5668
1319 1422364257 288.5513
1320 1422367187 288.5905
1321 1422370117 288.6218
1322 1422373046 288.5694
1323 1422375976 288.4876
1324 1422378906 288.6299
1325 1422381835 288.5995
1326 1422384765 288.5697
1327 1422387695 288.5657
1328 1422390625 288.5889
1329 1422393554 288.6992
1330 1422396484 288.6187
1331 1422399414 288.5815
1332 1422402343 288.6623
1333 1422405273 288.5600
1334 1422408203 288.5729
1335 1422411132 288.4820
1336 1422414062 288.5098
1337 1422416992 288.5647
1338 1422419921 288.4133
1339 1422422851 288.5006
1340 1422425781 288.6748
1341 1422428710 288.6104
1342 1422431640 288.4748
1343 1422434570 288.5816
1344 1422437500 288.6421
1345 1422440429 288.6357
1346 1422443359 288.6007
1347 1422446289 288.5818
1348 1422449218 288.6214
1349 1422452148 288.6108
1350 1422455078 288.6200
1351 1422458007 288.6134
1352 1422460937 288.6757
1353 1422463867 288.6513
1354 1422466796 288.6307
1355 1422469726 288.6593
1356 1422472656 288.5160
1357 1422475585 288.5978
1358 1422478515 288.7344
1359 1422481445 288.6189
1360 1422484375 288.6796
1361 1422487304 288.6853
1362 1422490234 288.7034
1363 1422493164 288.6823
1364 1422496093 288.6939
1365 1422499023 288.6328
1366 1422501953 288.6816
1367 1422504882 288.7374
1368 1422507812 288.7367
1369 1422510742 288.6460
1370 1422513671 288.6421
1371 1422516601 288.6543
1372 1422519531 288.7112
1373 1422522460 288.6740
1374 1422525390 288.6790
1375 1422528320 288.6501
1376 1422531250 288.6610
1377 1422534179 288.7021
1378 1422537109 288.6320
1379 1422540039 288.7150
1380 1422542968 288.7212
1381 1422545898 288.7579
1382 1422548828 288.7266
1383 1422551757 288.6635
1384 1422554687 288.7618
1385 1422557617 288.6786
1386 1422560546 288.7030
1387 1422563476 288.7182
1388 1422566406 288.8217
1389 1422569335 288.7275
1390 1422572265 288.7062
1391 1422575195 288.6537
1392 1422578125 288.7163
1393 1422581054 288.6911
1394 1422583984 288.6743
1395 1422586914 288.6598
1396 1422589843 288.6286
1397 1422592773 288.5588
1398 1422595703 288.6939
1399 1422598632 288.5225
1400 1422601562 288.6586
1401 1422604492 288.6336
1402 1422607421 288.5804
1403 1422610351 288.5840
1404 1422613281 288.6444
1405 1422616210 288.6789
1406 1422619140 288.6221
1407 1422622070 288.6362
1408 1422625000 288.4534
1409 1422627929 288.5745
1410 1422630859 288.5846
1411 1422633789 288.6071
1412 1422636718 288.5751
1413 1422639648 288.5248
1414 1422642578 288.5030
1415 1422645507 288.6553
1416 1422648437 288.6184
1417 1422651367 288.7057
1418 1422654296 288.7030
1419 1422657226 288.6754
1420 1422660156 288.8081
1421 1422663085 288.8665
1422 1422666015 288.8115
1423 1422668945 288.6487
1424 1422671875 288.7256
1425 1422674804 288.7750
1426 1422677734 288.7447
1427 1422680664 288.5978
1428 1422683593 288.6010
1429 1422686523 288.5522
1430 1422689453 288.6629
1431 1422692382 288.6166
1432 1422695312 288.5967
1433 1422698242 288.5543
1434 1422701171 288.5897
1435 1422704101 288.6075
1436 1422707031 288.5246
1437 1422709960 288.5008
1438 1422712890 288.4815
1439 1422715820 288.5993
1440 1422718750 288.5307
1441 1422721679 288.5697
1442 1422724609 288.6114
1443 1422727539 288.5582
1444 1422730468 288.5955
1445 1422733398 288.4567
1446 1422736328 288.5302
1447 1422739257 288.5461
1448 1422742187 288.4953
1449 1422745117 288.4708
1450 1422748046 288.4405
1451 1422750976 288.3252
1452 1422753906 288.3523
1453 1422756835 288.4211
1454 1422759765 288.4137
1455 1422762695 288.5391
1456 1422765625 288.4249
1457 1422768554 288.2847
1458 1422771484 288.3399
1459 1422774414 288.4256
1460 1422777343 288.2683
1461 1422780273 288.3662
1462 1422783203 288.3393
1463 1422786132 288.3649
1464 1422789062 288.3554
1465 1422791992 288.2643
1466 1422794921 288.3290
1467 1422797851 288.2495
1468 1422800781 288.2521
1469 1422803710 288.2635
1470 1422806640 288.2767
1471 1422809570 288.2235
1472 1422812500 288.3051
1473 1422815429 288.1455
1474 1422818359 288.2006
1475 1422821289 288.1219
1476 1422824218 288.1668
1477 1422827148 288.2570
1478 1422830078 288.1958
1479 1422833007 288.2269
1480 1422835937 288.1867
1481 1422838867 288.1511
1482 1422841796 288.1699
1483 1422844726 288.0669
1484 1422847656 288.0719
1485 1422850585 288.1381
1486 1422853515 288.2589
1487 1422856445 288.1213
1488 1422859375 288.1819
1489 1422862304 288.1275
1490 1422865234 288.1751
1491 1422868164 288.1928
1492 1422871093 288.1692
1493 1422874023 288.1594
1494 1422876953 288.0772
1495 1422879882 288.1855
1496 1422882812 288.1613
1497 1422885742 288.1882
1498 1422888671 288.0367
1499 1422891601 288.1864
1500 1422894531 288.1637
1501 1422897460 288.1562
1502 1422900390 288.0434
1503 1422903320 288.1073
1504 1422906250 287.9058
1505 1422909179 287.9950
1506 1422912109 288.1299
1507 1422915039 287.9968
1508 1422917968 288.0105
1509 1422920898 287.9583
1510 1422923828 287.9628
1511 1422926757 287.9913
1512 1422929687 288.0063
1513 1422932617 287.9839
1514 1422935546 287.8958
1515 1422938476 287.9806
1516 1422941406 287.9516
1517 1422944335 287.9824
1518 1422947265 288.0615
1519 1422950195 287.8789
1520 1422953125 287.8666
1521 1422956054 287.8350
1522 1422958984 287.9746
1523 1422961914 287.9554
1524 1422964843 288.0388
1525 1422967773 288.0124
1526 1422970703 288.0148
1527 1422973632 288.0206
1528 1422976562 287.9954
1529 1422979492 288.0650
1530 1422982421 288.0576
1531 1422985351 288.1074
1532 1422988281 288.1620
1533 1422991210 288.2077
1534 1422994140 288.2790
1535 1422997070 288.3971
1536 1423000000 288.3865
1537 1423002929 288.1007
1538 1423005859 288.0883
1539 1423008789 288.0442
1540 1423011718 288.1043
1541 1423014648 288.1954
1542 1423017578 288.1048
1543 1423020507 288.0824
1544 1423023437 288.0846
1545 1423026367 288.1854
1546 1423029296 288.1161
1547 1423032226 288.1082
1548 1423035156 288.2838
1549 1423038085 288.2565
1550 1423041015 288.2801
1551 1423043945 288.3064
1552 1423046875 288.2700
1553 1423049804 288.2245
1554 1423052734 288.4471
1555 1423055664 288.3954
1556 1423058593 288.3959
1557 1423061523 288.3702
1558 1423064453 288.3875
1559 1423067382 288.3517
1560 1423070312 288.4867
1561 1423073242 288.4910
1562 1423076171 288.5126
1563 1423079101 288.4924
1564 1423082031 288.4600
1565 1423084960 288.6736
1566 1423087890 288.5975
1567 1423090820 288.7611
1568 1423093750 288.7563
1569 1423096679 288.6304
1570 1423099609 288.7689
1571 1423102539 288.7743
1572 1423105468 288.7077
1573 1423108398 288.7556
1574 1423111328 288.8620
1575 1423114257 288.7908
1576 1423117187 288.8371
1577 1423120117 288.9374
1578 1423123046 288.8507
1579 1423125976 289.0251
1580 1423128906 289.0435
1581 1423131835 289.1907
1582 1423134765 289.1244
1583 1423137695 289.1748
1584 1423140625 289.1570
1585 1423143554 289.2129
1586 1423146484 289.3209
1587 1423149414 289.3725
1588 1423152343 289.3859
1589 1423155273 289.4649
1590 1423158203 289.5785
1591 1423161132 289.5595
1592 1423164062 289.6341
1593 1423166992 289.6639
1594 1423169921 289.6916
1595 1423172851 289.6973
1596 1423175781 289.8196
1597 1423178710 289.9551
1598 1423181640 290.0273
1599 1423184570 289.9383
1600 1423187500 290.1644
1601 1423190429 290.1514
1602 1423193359 290.2690
1603 1423196289 290.2234
1604 1423199218 290.3004
1605 1423202148 290.4750
1606 1423205078 290.4714
1607 1423208007 290.6015
1608 1423210937 290.6773
1609 1423213867 290.7418
1610 1423216796 290.7756
1611 1423219726 290.9158
1612 1423222656 291.0075
1613 1423225585 291.0924
1614 1423228515 291.1563
1615 1423231445 291.2128
1616 1423234375 291.3171
1617 1423237304 291.3976
1618 1423240234 291.4919
1619 1423243164 291.6647
1620 1423246093 291.6817
1621 1423249023 291.8575
1622 1423251953 291.8900
1623 1423254882 292.0746
1624 1423257812 292.1114
1625 1423260742 292.4501
1626 1423263671 292.3458
1627 1423266601 292.5809
1628 1423269531 292.5942
1629 1423272460 292.7558
1630 1423275390 293.1276
1631 1423278320 293.2884
1632 1423281250 293.6376
1633 1423284179 293.5563
1634 1423287109 293.4692
1635 1423290039 293.4828
1636 1423292968 293.5979
1637 1423295898 293.9073
1638 1423298828 293.9513
1639 1423301757 294.2480
1640 1423304687 294.3740
1641 1423307617 294.4159
1642 1423310546 294.5703
1643 1423313476 294.7080
1644 1423316406 295.0167
1645 1423319335 295.1210
1646 1423322265 295.5219
1647 1423325195 295.7764
1648 1423328125 296.1603
1649 1423331054 296.1518
1650 1423333984 296.1129
1651 1423336914 296.3563
1652 1423339843 296.4386
1653 1423342773 296.5832
1654 1423345703 296.7644
1655 1423348632 296.9897
1656 1423351562 297.1663
1657 1423354492 297.4947
1658 1423357421 297.5667
1659 1423360351 297.7497
1660 1423363281 298.0452
1661 1423366210 298.2459
1662 1423369140 298.5507
1663 1423372070 298.7701
1664 1423375000 299.0896
1665 1423377929 299.1873
1666 1423380859 299.4478
1667 1423383789 299.6719
1668 1423386718 299.8649
1669 1423389648 300.2072
1670 1423392578 300.4325
1671 1423395507 300.8535
1672 1423398437 301.2748
1673 1423401367 301.4798
1674 1423404296 301.6879
1675 1423407226 301.9865
1676 1423410156 302.2658
1677 1423413085 302.5784
1678 1423416015 302.8519
1679 1423418945 303.2408
1680 1423421875 303.6109
1681 1423424804 303.8927
1682 1423427734 304.2977
1683 1423430664 304.6903
1684 1423433593 305.0605
1685 1423436523 305.3923
1686 1423439453 305.7624
1687 1423442382 306.1678
1688 1423445312 306.5929
1689 1423448242 306.9995
1690 1423451171 307.2652
1691 1423454101 307.7926
1692 1423457031 308.2967
1693 1423459960 308.7314
1694 1423462890 309.2461
1695 1423465820 309.6708
1696 1423468750 310.2096
1697 1423471679 310.6717
1698 1423474609 310.9952
1699 1423477539 311.6109
1700 1423480468 312.0774
1701 1423483398 312.4859
1702 1423486328 313.0117
1703 1423489257 313.4349
1704 1423492187 314.0631
1705 1423495117 314.6539
1706 1423498046 315.2969
1707 1423500976 315.8061
1708 1423503906 316.2745
1709 1423506835 316.8921
1710 1423509765 317.3703
1711 1423512695 318.1265
1712 1423515625 318.7738
1713 1423518554 319.3915
1714 1423521484 320.0298
1715 1423524414 320.6262
1716 1423527343 321.1840
1717 1423530273 321.9249
1718 1423533203 322.7050
1719 1423536132 323.3838
1720 1423539062 324.1026
1721 1423541992 324.7955
1722 1423544921 325.6035
1723 1423547851 326.3181
1724 1423550781 327.0928
1725 1423553710 327.8413
1726 1423556640 328.6719
1727 1423559570 329.4177
1728 1423562500 330.2861
1729 1423565429 330.9147
1730 1423568359 331.8674
1731 1423571289 332.7113
1732 1423574218 333.5667
1733 1423577148 334.5269
1734 1423580078 335.3408
1735 1423583007 336.2962
1736 1423585937 337.3829
1737 1423588867 338.3383
1738 1423591796 339.5388
1739 1423594726 340.3826
1740 1423597656 341.3908
1741 1423600585 342.5061
1742 1423603515 343.6021
1743 1423606445 344.4886
1744 1423609375 345.7442
1745 1423612304 346.8876
1746 1423615234 348.0225
1747 1423618164 349.2083
1748 1423621093 350.5233
1749 1423624023 351.6897
1750 1423626953 352.8866
1751 1423629882 354.1831
1752 1423632812 355.5200
1753 1423635742 356.8786
1754 1423638671 358.3637
1755 1423641601 359.4659
1756 1423644531 360.9898
1757 1423647460 362.5547
1758 1423650390 363.9463
1759 1423653320 365.5961
1760 1423656250 367.1210
1761 1423659179 368.8121
1762 1423662109 370.6324
1763 1423665039 371.9108
1764 1423667968 373.2843
1765 1423670898 374.9004
1766 1423673828 376.5285
1767 1423676757 378.2996
1768 1423679687 379.9644
1769 1423682617 381.6042
1770 1423685546 383.4950
1771 1423688476 385.3346
1772 1423691406 387.1319
1773 1423694335 389.0638
1774 1423697265 390.8655
1775 1423700195 392.8443
1776 1423703125 394.7754
1777 1423706054 396.6436
1778 1423708984 398.7035
1779 1423711914 401.0194
1780 1423714843 403.0677
1781 1423717773 405.0910
1782 1423720703 406.9514
1783 1423723632 409.2995
1784 1423726562 411.3082
1785 1423729492 413.6002
1786 1423732421 415.8849
1787 1423735351 418.0124
1788 1423738281 420.2274
1789 1423741210 422.4353
1790 1423744140 424.6452
1791 1423747070 426.7694
1792 1423750000 428.8384
1793 1423752929 431.0716
1794 1423755859 433.2014
1795 1423758789 435.3168
1796 1423761718 437.5372
1797 1423764648 439.6134
1798 1423767578 441.8765
1799 1423770507 443.9770
1800 1423773437 445.9503
1801 1423776367 448.0697
1802 1423779296 449.9596
1803 1423782226 451.8671
1804 1423785156 453.6910
1805 1423788085 455.2525
1806 1423791015 456.9571
1807 1423793945 458.6672
1808 1423796875 460.0083
1809 1423799804 461.2549
1810 1423802734 462.5775
1811 1423805664 463.6788
1812 1423808593 464.3067
1813 1423811523 465.0925
1814 1423814453 465.5139
1815 1423817382 465.7876
1816 1423820312 465.8070
1817 1423823242 465.5689
1818 1423826171 465.2804
1819 1423829101 464.5360
1820 1423832031 463.7143
1821 1423834960 462.1413
1822 1423837890 460.4588
1823 1423840820 458.5672
1824 1423843750 456.4516
1825 1423846679 453.6069
1826 1423849609 450.5708
1827 1423852539 447.0850
1828 1423855468 443.2722
1829 1423858398 439.1770
1830 1423861328 434.5216
1831 1423864257 429.3976
1832 1423867187 424.0206
1833 1423870117 418.0136
1834 1423873046 411.9558
1835 1423875976 405.0605
1836 1423878906 398.1333
1837 1423881835 390.8116
1838 1423884765 382.8941
1839 1423887695 374.9664
1840 1423890625 366.3273
1841 1423893554 357.7438
1842 1423896484 348.6533
1843 1423899414 339.4940
1844 1423902343 330.1564
1845 1423905273 320.5436
1846 1423908203 310.8687
1847 1423911132 301.1046
1848 1423914062 291.2181
1849 1423916992 281.1274
1850 1423919921 271.2502
1851 1423922851 261.3812
1852 1423925781 251.4675
1853 1423928710 241.5612
1854 1423931640 231.8723
1855 1423934570 222.2238
1856 1423937500 212.8482
1857 1423940429 203.4846
1858 1423943359 194.4545
1859 1423946289 185.5466
1860 1423949218 176.8973
1861 1423952148 168.4922
1862 1423955078 160.4191
1863 1423958007 152.5096
1864 1423960937 144.9179
1865 1423963867 137.5429
1866 1423966796 130.4213
1867 1423969726 123.5840
1868 1423972656 117.0100
1869 1423975585 110.7168
1870 1423978515 104.6966
1871 1423981445 98.9179
1872 1423984375 93.4106
1873 1423987304 88.1343
1874 1423990234 83.1708
1875 1423993164 78.4253
1876 1423996093 73.8709
1877 1423999023 69.4871
1878 1424001953 65.3399
1879 1424004882 61.4426
1880 1424007812 57.7213
1881 1424010742 54.1808
1882 1424013671 50.8387
1883 1424016601 47.7174
1884 1424019531 44.7401
1885 1424022460 41.9311
1886 1424025390 39.2724
1887 1424028320 36.7653
1888 1424031250 34.3968
1889 1424034179 32.1684
1890 1424037109 30.0670
1891 1424040039 28.1009
1892 1424042968 26.2507
1893 1424045898 24.4974
1894 1424048828 22.8452
1895 1424051757 21.2869
1896 1424054687 19.8279
1897 1424057617 18.4551
1898 1424060546 17.1785
1899 1424063476 15.9769
1900 1424066406 14.8501
1901 1424069335 13.7926
1902 1424072265 12.8089
1903 1424075195 11.8896
1904 1424078125 11.0297
1905 1424081054 10.2228
1906 1424083984 9.4719
1907 1424086914 8.7710
1908 1424089843 8.1130
1909 1424092773 7.5075
1910 1424095703 6.9420
1911 1424098632 6.4174
1912 1424101562 5.9299
1913 1424104492 5.4781
1914 1424107421 5.0596
1915 1424110351 4.6759
1916 1424113281 4.3180
1917 1424116210 3.9907
1918 1424119140 3.6890
1919 1424122070 3.4121
1920 1424125000 3.1593
1921 1424127929 2.9284
1922 1424130859 2.7254
1923 1424133789 2.5324
1924 1424136718 2.3525
1925 1424139648 2.1936
1926 1424142578 2.0476
1927 1424145507 1.9202
1928 1424148437 1.8093
1929 1424151367 1.7112
1930 1424154296 1.6261
1931 1424157226 1.5541
1932 1424160156 1.4955
1933 1424163085 1.4488
1934 1424166015 1.4104
1935 1424168945 1.3739
1936 1424171875 1.3418
1937 1424174804 1.3172
1938 1424177734 1.3036
1939 1424180664 1.2987
1940 1424183593 1.2987
1941 1424186523 1.3070
1942 1424189453 1.3207
1943 1424192382 1.3386
1944 1424195312 1.3646
1945 1424198242 1.3912
1946 1424201171 1.4235
1947 1424204101 1.4632
1948 1424207031 1.5001
1949 1424209960 1.5463
1950 1424212890 1.5951
1951 1424215820 1.6434
1952 1424218750 1.7091
1953 1424221679 1.7971
1954 1424224609 1.9428
1955 1424227539 2.1015
1956 1424230468 2.0562
1957 1424233398 2.0039
1958 1424236328 2.0356
1959 1424239257 2.0902
1960 1424242187 2.1516
1961 1424245117 2.2141
1962 1424248046 2.2780
1963 1424250976 2.3427
1964 1424253906 2.4073
1965 1424256835 2.4736
1966 1424259765 2.5393
1967 1424262695 2.6055
1968 1424265625 2.6722
1969 1424268554 2.7381
1970 1424271484 2.8033
1971 1424274414 2.8693
1972 1424277343 2.9340
1973 1424280273 2.9974
1974 1424283203 3.0610
1975 1424286132 3.1246
1976 1424289062 3.1876
1977 1424291992 3.2493
1978 1424294921 3.3091
1979 1424297851 3.3710
1980 1424300781 3.4314
1981 1424303710 3.4932
1982 1424306640 3.5599
1983 1424309570 3.6313
1984 1424312500 3.8109
1985 1424315429 4.1179
1986 1424318359 4.1163
1987 1424321289 4.0166
1988 1424324218 4.0042
1989 1424327148 3.9583
1990 1424330078 3.9748
1991 1424333007 4.0193
1992 1424335937 4.0461
1993 1424338867 4.0899
1994 1424341796 4.1246
1995 1424344726 4.1562
1996 1424347656 4.1952
1997 1424350585 4.2277
1998 1424353515 4.2582
1999 1424356445 4.2924
2000 1424359375 4.3241
2001 1424362304 4.3532
2002 1424365234 4.3828
2003 1424368164 4.4087
2004 1424371093 4.4368
2005 1424374023 4.4614
2006 1424376953 4.4841
2007 1424379882 4.5094
2008 1424382812 4.5314
2009 1424385742 4.5525
2010 1424388671 4.5726
2011 1424391601 4.5956
2012 1424394531 4.6223
2013 1424397460 4.6464
2014 1424400390 4.6957
2015 1424403320 4.8331
2016 1424406250 4.9502
2017 1424409179 5.1691
2018 1424412109 5.3702
2019 1424415039 5.0676
2020 1424417968 4.8648
2021 1424420898 4.8601
2022 1424423828 4.8468
2023 1424426757 4.8500
2024 1424429687 4.8701
2025 1424432617 4.8930
2026 1424435546 4.9153
2027 1424438476 4.9418
2028 1424441406 4.9777
2029 1424444335 5.0120
2030 1424447265 5.0409
2031 1424450195 5.0906
2032 1424453125 5.1268
2033 1424456054 5.1639
2034 1424458984 5.2351
2035 1424461914 5.2734
2036 1424464843 5.3237
2037 1424467773 5.4190
2038 1424470703 5.4550
2039 1424473632 5.5325
2040 1424476562 5.6272
2041 1424479492 5.6658
2042 1424482421 5.7704
2043 1424485351 5.8466
2044 1424488281 5.9222
2045 1424491210 6.0304
2046 1424494140 6.1334
2047 1424497070 6.2196
